Q_x     Q_y     E(MeV)
3.67692 1.33648 11
3.70284 1.31285 12
3.71022 1.31375 13
3.71607 1.32313 14
3.72405 1.33341 15
3.72932 1.34237 16
3.73471 1.34987 16.9999
3.73914 1.35617 18
3.7478 1.36145 19
3.7541 1.36605 20
3.75234 1.37016 21
3.75733 1.37371 22
3.76821 1.37656 23.0001
3.75992 1.37909 24
3.77309 1.3808 25
3.77341 1.38182 26
3.77314 1.38243 27
3.78251 1.38226 27.9999
3.7762 1.38194 29
3.78572 1.38143 30
3.78088 1.3811 31.0001
3.78823 1.38098 32
3.78615 1.38127 33
3.78765 1.38196 34
3.79039 1.38277 35
3.78701 1.38403 36
3.79357 1.38506 37
3.79082 1.38674 38
3.79136 1.38837 39.0001
3.79277 1.39004 40
3.79191 1.39166 41
3.79374 1.39321 42
3.79259 1.39459 43
3.7935 1.39575 44.0001
3.79466 1.39597 45
3.79447 1.39615 46
3.79735 1.39565 47
3.79498 1.39376 47.9999
3.79571 1.39126 49
3.80095 1.38851 50
3.79785 1.38483 51
3.80019 1.38012 52
3.80433 1.37524 53
3.80616 1.37069 54
3.80197 1.36678 55.0001
3.80548 1.36327 56
3.81287 1.36016 57.0001
3.80749 1.3583 58.0001
3.80547 1.35886 59
3.80924 1.36026 60
3.8134 1.36185 61.0001
3.80401 1.36434 61.9997
3.79903 1.36796 62.9997
3.80625 1.372 63.9997
3.81345 1.37612 64.9997
3.80619 1.37997 65.9997
3.7942 1.38308 66.9997
3.7997 1.38564 67.9997
3.80459 1.38816 68.9997
3.80677 1.39025 69.9997
3.79712 1.39157 70.9997
3.79593 1.39202 71.9997
3.80225 1.39196 72.9997
3.80473 1.39154 73.9997
3.80369 1.39115 74.9997
3.79667 1.39032 75.9997
3.80079 1.38891 76.9997
3.80526 1.38742 77.9997
3.80666 1.3857 78.9997
3.80547 1.38408 79.9997
3.79927 1.38199 80.9997
3.80197 1.37992 81.9997
3.80643 1.37755 82.9997
3.80665 1.37537 83.9997
3.80798 1.37314 84.9997
3.80394 1.37061 85.9997
3.79999 1.36836 86.9997
3.80357 1.3655 87.9997
3.80602 1.36309 88.9997
3.80817 1.36057 89.9997
3.80737 1.35786 90.9997
3.80339 1.3554 91.9997
3.80287 1.35253 92.9997
3.80675 1.34991 93.9997
3.80765 1.347 94.9997
3.80877 1.34443 95.9997
3.81034 1.34142 96.9997
3.80753 1.33862 97.9997
3.80462 1.33571 98.9997
3.80747 1.33276 99.9997
3.80631 1.32984 101
3.80385 1.32699 102
3.80595 1.32434 103
3.80672 1.32126 104
3.80533 1.31848 105
3.80587 1.31543 106
3.80781 1.31254 107
3.80515 1.30963 108
3.80469 1.30676 109
3.80692 1.30365 110
3.80632 1.3005 111
3.80467 1.29768 112
3.80474 1.29482 113
3.80569 1.29154 114
3.80333 1.28873 115
3.80158 1.28555 116
3.80578 1.28329 117
3.80598 1.28057 118
3.8037 1.27815 119
3.80079 1.27583 120
3.80116 1.27316 121
3.79876 1.2705 122
3.79552 1.26815 123
3.79546 1.2657 124
3.79657 1.26311 125
3.79624 1.26016 126
3.79151 1.25728 127
3.79096 1.25406 128.001
3.78859 1.25082 129
3.78774 1.24632 130
3.78549 1.24149 131
3.7876 1.23445 132
3.79369 1.22377 133
3.79494 1.21273 134
3.79497 1.20295 135
3.79555 1.19128 136
3.79297 1.18191 137
3.79855 1.17655 138
3.81027 1.20337 139
