Q_x     Q_y     E(MeV)
3.67778 1.3389 11
3.70035 1.31448 12
3.71004 1.31521 13
3.71689 1.3251 14
3.72429 1.33512 15
3.72984 1.34377 16
3.73559 1.35169 16.9999
3.74091 1.35795 18
3.74648 1.36256 19
3.75381 1.36708 20
3.755 1.37177 21
3.75861 1.37535 22
3.76568 1.37787 23.0001
3.76398 1.38013 24
3.77073 1.38166 25
3.7732 1.3827 26
3.7749 1.38373 27
3.78085 1.38361 27.9999
3.77844 1.3832 29
3.78404 1.38268 30
3.78263 1.38188 31.0001
3.78694 1.38177 32
3.78698 1.38194 33
3.7882 1.38228 34
3.79074 1.38322 35
3.78976 1.38458 36
3.7934 1.38577 37
3.79131 1.38752 38
3.79215 1.38884 39.0001
3.79354 1.39013 40
3.79283 1.39177 41
3.79454 1.39355 42
3.79459 1.39491 43
3.79354 1.39603 44.0001
3.7948 1.39641 45
3.79566 1.39597 46
3.79625 1.39539 47
3.79662 1.3934 47.9999
3.7982 1.39108 49
3.79976 1.38813 50
3.80012 1.38423 51
3.80204 1.37974 52
3.80433 1.37492 53
3.80599 1.37031 54
3.80536 1.3665 55.0001
3.80703 1.36293 56
3.80971 1.35988 57.0001
3.80848 1.35823 58.0001
3.80803 1.35847 59
3.81054 1.36019 60
3.81125 1.36193 61.0001
3.80579 1.3642 61.9997
3.80253 1.36752 62.9997
3.80737 1.37135 63.9997
3.80892 1.37575 64.9997
3.8051 1.37951 65.9997
3.79954 1.38253 66.9997
3.8007 1.38479 67.9997
3.80418 1.3872 68.9997
3.80393 1.3897 69.9997
3.80045 1.39107 70.9997
3.79876 1.39146 71.9997
3.80161 1.39142 72.9997
3.8037 1.39081 73.9997
3.80263 1.39035 74.9997
3.80071 1.38925 75.9997
3.80196 1.38803 76.9997
3.80407 1.3867 77.9997
3.80441 1.38481 78.9997
3.80423 1.38337 79.9997
3.8029 1.38128 80.9997
3.80321 1.3794 81.9997
3.80564 1.37708 82.9997
3.80723 1.37484 83.9997
3.80681 1.37247 84.9997
3.80513 1.37004 85.9997
3.80283 1.36771 86.9997
3.80348 1.36482 87.9997
3.80596 1.36255 88.9997
3.80626 1.35979 89.9997
3.80716 1.35698 90.9997
3.80681 1.35432 91.9997
3.80592 1.35145 92.9997
3.80719 1.34892 93.9997
3.8087 1.346 94.9997
3.80873 1.34336 95.9997
3.80901 1.34037 96.9997
3.80827 1.33751 97.9997
3.80637 1.33503 98.9997
3.80612 1.3315 99.9997
3.80675 1.32931 101
3.80621 1.32602 102
3.80614 1.32341 103
3.80686 1.32044 104
3.80665 1.31747 105
3.80562 1.31464 106
3.80642 1.31172 107
3.80685 1.30877 108
3.80641 1.3058 109
3.8064 1.303 110
3.80688 1.29978 111
3.80672 1.2969 112
3.80543 1.29414 113
3.80493 1.29141 114
3.80507 1.28835 115
3.80444 1.28548 116
3.80391 1.28291 117
3.8044 1.28018 118
3.80326 1.27769 119
3.8017 1.27503 120
3.80033 1.27246 121
3.79931 1.26986 122
3.7983 1.26732 123
3.79691 1.26477 124
3.7966 1.26191 125
3.79553 1.25886 126
3.79402 1.25588 127
3.79083 1.25245 128.001
3.78991 1.24833 129
3.78914 1.24377 130
3.78823 1.23628 131
3.78835 1.22831 132
3.78985 1.22099 133
3.79227 1.2152 134
3.79129 1.20484 135
3.79189 1.20057 136
3.79728 1.20498 137
3.80901 1.22819 138
3.83959 1.28763 139
